/**
 * \file       :ntc_table.c
 * \brief      :The resistance array of two kinds of NTC at -70 degrees Celsius to 150 degrees Celsius(respectively PT103J2_RT, PT103G2_RT)
 * \author     :liyunyi
 * \date       :2022.7.12
 * \version    :v2.0.0
 * \copyright  :
 */
#include "ntc_table.h"
#define ARRAY_NUM(a) (sizeof(a)/sizeof(a[0]))

float j2_form_value[] = {
2833440.96,	2823400.07,	2813394.77,	2803424.93,	2793490.41,	2783591.10,	2773726.88,	2763897.60,	2754103.16,	2744343.43,	2734618.28,	2724927.60,	2715271.26,	2705649.13,	2696061.11,	2686507.06,	2676986.87,	2667500.41,	2658047.57,	2648628.23,
2639242.27,	2629889.57,	2620570.02,	2611283.49,	2602029.87,	2592809.04,	2583620.88,	2574465.29,	2565342.14,	2556251.32,	2547192.72,	2538166.22,	2529171.70,	2520209.06,	2511278.18,	2502378.95,	2493511.25,	2484674.98,	2475870.02,	2467096.27,
2458353.60,	2449641.92,	2440961.11,	2432311.06,	2423691.66,	2415102.81,	2406544.40,	2398016.31,	2389518.45,	2381050.69,	2372612.95,	2364205.11,	2355827.06,	2347478.70,	2339159.92,	2330870.63,	2322610.71,	2314380.06,	2306178.58,	2298006.16,
2289862.70,	2281748.10,	2273662.25,	2265605.06,	2257576.42,	2249576.23,	2241604.40,	2233660.81,	2225745.37,	2217857.98,	2209998.55,	2202166.96,	2194363.13,	2186586.95,	2178838.33,	2171117.17,	2163423.37,	2155756.83,	2148117.46,	2140505.16,
2132919.84,	2125361.40,	2117829.74,	2110324.78,	2102846.41,	2095394.54,	2087969.07,	2080569.92,	2073197.00,	2065850.19,	2058529.43,	2051234.61,	2043965.63,	2036722.42,	2029504.87,	2022312.90,	2015146.42,	2008005.33,	2000889.55,	1993798.99,
1986733.55,	1979693.15,	1972677.70,	1965687.11,	1958721.29,	1951780.16,	1944863.62,	 1937971.60,	1931104.00,	1924260.73,	1917441.72,	1910646.87,	1903876.10,	1897129.32,	1890406.45,	1883707.40,	1877032.10,	1870380.45,	1863752.37,	1857147.78,
1850566.59,	1844008.73,	1837474.10,	1830962.63,	1824474.24,	1818008.84,	1811566.35,	1805146.69,	1798749.78,	1792375.54,	1786023.89,	1779694.75,	1773388.03,	1767103.66,	1760841.57,	1754601.66,	1748383.87,	1742188.11,	1736014.31,	1729862.38,
1723732.26,	1717623.86,	1711537.10,	1705471.92,	1699428.23,	1693405.95,	1687405.02,	1681425.35,	1675466.88,	1669529.51,	1663613.19,	1657717.84,	1651843.37,	1645989.72,	1640156.82,	1634344.58,	1628552.95,	1622781.83,	1617031.17,	1611300.89,
1605590.91,	1599901.17,	1594231.59,	1588582.10,	1582952.63,	1577343.11,	1571753.47,	1566183.64,	1560633.55,	1555103.12,	1549592.29,	1544100.99,	1538629.15,	1533176.70,	1527743.57,	1522329.70,	1516935.01,	1511559.44,	1506202.92,	1500865.37,
1495546.75,	1490246.97,	1484965.97,	1479703.69,	1474460.05,	1469235.00,	1464028.46,	1458840.38,	1453670.68,	1448519.29,	1443386.17,	1438271.23,	1433174.42,	1428095.67,	1423034.92,	1417992.10,	1412967.15,	1407960.01,	1402970.62,	1397998.90,
1393044.80,	1388108.26,	1383189.22,	1378287.60,	1373403.35,	1368536.41,	1363686.72,	1358854.22,	1354038.84,	1349240.52,	1344459.21,	1339694.84,	1334947.36,	1330216.70,	1325502.80,	1320805.61,	1316125.06,	1311461.10,	1306813.67,	1302182.70,
1297568.15,	1292969.95,	1288388.04,	1283822.37,	1279272.89,	1274739.52,	1270222.22,	1265720.92,	1261235.58,	1256766.13,	1252312.52,	1247874.69,	1243452.59,	1239046.16,	1234655.35,	1230280.09,	1225920.34,	1221576.04,	1217247.13,	1212933.56,
1208635.28,	1204352.24,	1200084.36,	1195831.62,	1191593.94,	1187371.28,	1183163.59,	1178970.80,	1174792.88,	1170629.76,	1166481.39,	1162347.72,	1158228.70,	1154124.28,	1150034.40,	1145959.02,	1141898.08,	1137851.53,	1133819.31,	1129801.39,
1125797.71,	1121808.21,	1117832.85,	1113871.58,	1109924.35,	1105991.10,	1102071.79,	1098166.38,	1094274.80,	1090397.01,	1086532.96,	1082682.61,	1078845.90,	1075022.79,	1071213.22,	1067417.16,	1063634.54,	1059865.34,	1056109.48,	1052366.94,
1048637.66,	1044921.60,	1041218.70,	1037528.93,	1033852.23,	1030188.57,	1026537.88,	1022900.13,	1019275.27,	1015663.26,	1012064.05,	1008477.59,	1004903.84,	1001342.76,	997794.29,	994258.40,	990735.04,	987224.17,	983725.74,	980239.70,
963849,	960288.78,	956743.02,	953211.63,	949694.57,	946191.77,	942703.17,	939228.7,	935768.3,	932321.91,	928889.47,	925470.91,	922066.19,	918675.22,	915297.96,	911934.35,	908584.32,	905247.82,	901924.78,	898615.15,	895318.87,
892035.88,	888766.12,	885509.53,	882266.06,	879035.64,	875818.23,	872613.77,	869422.19,	866243.44,	863077.47,	859924.22,	856783.63,	853655.66,	850540.23,	847437.31,	844346.83,	841268.74,	838202.99,	835149.53,	832108.29,	829079.23,
826062.29,	823057.43,	820064.58,	817083.7,	814114.73,	811157.62,	808212.33,	805278.8,	802356.97,	799446.8,	796548.24,	793661.24,	790785.75,	787921.71,	785069.08,	782227.81,	779397.84,	776579.14,	773771.65,	770975.32,	768190.11,
765415.96,	762652.84,	759900.68,	757159.45,	754429.1,	751709.58,	749000.84,	746302.83,	743615.52,	740938.86,	738272.79,	735617.27,	732972.27,	730337.72,	727713.6,	725099.85,	722496.42,	719903.28,	717320.38,	714747.68,	712185.13,
709632.69,	707090.31,	704557.96,	702035.58,	699523.14,	697020.6,	694527.91,	692045.03,	689571.91,	687108.52,	684654.82,	682210.76,	679776.3,	677351.4,	674936.02,	672530.12,	670133.66,	667746.6,	665368.89,	663000.51,	660641.4,
658291.54,	655950.87,	653619.36,	651296.98,	648983.68,	646679.43,	644384.18,	642097.9,	639820.54,	637552.08,	635292.48,	633041.69,	630799.68,	628566.41,	626341.85,	624125.96,	621918.69,	619720.02,	617529.91,	615348.33,	613175.22,
611010.57,	608854.33,	606706.48,	604566.96,	602435.75,	600312.82,	598198.12,	596091.63,	593993.31,	591903.12,	589821.03,	587747.01,	585681.02,	583623.02,	581573,	579530.9,	577496.7,	575470.37,	573451.86,	571441.16,	569438.22,
567443.01,	565455.5,	563475.67,	561503.47,	559538.87,	557581.84,	555632.36,	553690.38,	551755.88,	549828.83,	547909.19,	545996.94,	544092.04,	542194.46,	540304.17,	538421.14,	536545.35,	534676.75,	532815.33,	530961.04,	529113.87,
527273.78,	525440.74,	523614.72,	521795.69,	519983.63,	518178.5,	516380.28,	514588.94,	512804.44,	511026.77,	509255.88,	507491.76,	505734.38,	503983.7,	502239.7,	500502.35,	498771.63,	497047.51,	495329.95,	493618.93,	491914.44,
490216.42,	488524.87,	486839.76,	485161.05,	483488.72,	481822.75,	480163.11,	478509.77,	476862.7,	475221.89,	473587.3,	471958.91,	470336.69,	468720.62,	467110.67,	465506.82,	463909.04,	462317.31,	460731.6,	459151.89,	457578.15,
456010.36,	454448.5,	452892.53,	451342.44,	449798.19,	448259.78,	446727.17,	445200.34,	443679.26,	442163.91,	440654.27,	439150.32,	437652.03,	436159.38,	434672.34,	433190.9,	431715.02,	430244.69,	428779.88,	427320.58,	425866.75,
424418.38,	422975.45,	421537.93,	420105.79,	418679.03,	417257.61,	415841.51,	414430.72,	413025.21,	411624.95,	410229.94,	408840.14,	407455.53,	406076.1,	404701.83,	403332.68,	401968.65,	400609.7,	399255.83,	397907.01,	396563.21,
395224.42,	393890.62,	392561.79,	391237.91,	389918.95,	388604.9,	387295.74,	385991.44,	384692,	383397.38,	382107.57,	380822.55,	379542.3,	378266.8,	376996.03,	375729.98,	374468.62,	373211.93,	371959.9,	370712.51,	369469.73,
368231.55,	366997.96,	365768.92,	364544.43,	363324.47,	362109.01,	360898.05,	359691.55,	358489.51,	357291.9,	356098.72,	354909.93,	353725.52,	352545.48,	351369.78,	350198.42,	349031.37,	347868.61,	346710.13,	345555.91,	344405.93,
343260.18,	342118.64,	340981.3,	339848.13,	338719.11,	337594.24,	336473.5,	335356.87,	334244.33,	333135.86,	332031.46,	330931.1,	329834.77,	328742.45,	327654.13,	326569.79,	325489.41,	324412.98,	323340.49,	322271.91,	321207.23,
320146.44,	319089.52,	318036.45,	316987.22,	315941.82,	314900.23,	313862.43,	312828.41,	311798.16,	310771.65,	309748.88,	308729.83,	307714.48,	306702.83,	305694.85,	304690.53,	303689.85,	302692.81,	301699.39,	300709.57,	299723.34,
298740.68,	297761.58,	296786.04,	295814.02,	294845.52,	293880.53,	292919.03,	291961.01,	291006.44,	290055.33,	289107.66,	288163.41,	287222.57,	286285.12,	285351.06,	284420.36,	283493.02,	282569.03,	281648.36,	280731.01,	279816.97,
278906.21,	277998.73,	277094.52,	276193.56,	275295.84,	274401.34,	273510.06,	272621.98,	271737.09,	270855.37,	269976.82,	269101.42,	268229.16,	267360.03,	266494.01,	265631.09,	264771.27,	263914.52,	263060.84,	262210.21,	261362.62,
260518.07,	259676.53,	258838,	258002.47,	257169.91,	256340.34,	255513.72,	254690.05,	253869.31,	253051.51,	252236.61,	251424.62,	250615.53,	249809.31,	249005.96,	248205.47,	247407.83,	246613.03,	245821.05,	245031.88,	244245.52,
243461.95,	242681.16,	241903.14,	241127.88,	240355.37,	239585.6,	238818.56,	238054.24,	237292.62,	236533.7,	235777.46,	235023.91,	234273.01,	233524.78,	232779.18,	232036.23,	231295.89,	230558.17,	229823.06,	229090.54,	228360.61,
227633.25,	226908.45,	226186.21,	225466.51,	224749.35,	224034.71,	223322.59,	222612.98,	221905.86,	221201.23,	220499.07,	219799.39,	219102.16,	218407.38,	217715.04,	217025.13,	216337.64,	215652.56,	214969.89,	214289.6,	213611.71,
212936.18,	212263.02,	211592.22,	210923.77,	210257.65,	209593.87,	208932.4,	208273.25,	207616.4,	206961.85,	206309.58,	205659.58,	205011.86,	204366.39,	203723.18,	203082.21,	202443.47,	201806.96,	201172.66,	200540.58,	199910.69,
199283,	198657.48,	198034.15,	197412.98,	196793.97,	196177.11,	195562.39,	194949.81,	194339.35,	193731.01,	193124.78,	192520.65,	191918.62,	191318.67,	190720.8,	190125,	189531.26,	188939.58,	188349.94,	187762.35,	187176.78,
186593.24,	186011.72,	185432.2,	184854.69,	184279.16,	183705.63,	183134.07,	182564.49,	181996.86,	181431.2,	180867.48,	180305.7,	179745.86,	179187.95,	178631.95,	178077.87,	177525.69,	176975.41,	176427.02,	175880.52,	175335.89,
174793.13,	174252.24,	173713.2,	173176.01,	172640.66,	172107.14,	171575.46,	171045.59,	170517.54,	169991.3,	169466.86,	168944.21,	168423.35,	167904.27,	167386.96,	166871.43,	166357.65,	165845.63,	165335.35,	164826.82,	164320.02,
163814.95,	163311.6,	162809.97,	162310.04,	161811.82,	161315.3,	160820.46,	160327.31,	159835.84,	159346.03,	158857.9,	158371.42,	157886.59,	157403.41,	156921.87,	156441.97,	155963.69,	155487.04,	155012,	154538.57,	154066.75,
153596.52,	153127.89,	152660.84,	152195.38,	151731.49,	151269.16,	150808.4,	150349.2,	149891.55,	149435.45,	148980.89,	148527.86,	148076.36,	147626.38,	147177.92,	146730.97,	146285.53,	145841.59,	145399.15,	144958.19,	144518.72,
144080.73,	143644.21,	143209.16,	142775.57,	142343.44,	141912.76,	141483.53,	141055.74,	140629.38,	140204.46,	139780.96,	139358.88,	138938.22,	138518.96,	138101.11,	137684.67,	137269.61,	136855.94,	136443.66,	136032.76,	135623.23,
135215.07,	134808.27,	134402.84,	133998.75,	133596.02,	133194.63,	132794.58,	132395.86,	131998.48,	131602.42,	131207.67,	130814.25,	130422.13,	130031.32,	129641.81,	129253.6,	128866.67,	128481.04,	128096.68,	127713.6,	127331.8,
126951.26,	126571.99,	126193.97,	125817.21,	125441.7,	125067.44,	124694.41,	124322.62,	123952.06,	123582.73,	123214.63,	122847.74,	122482.06,	122117.59,	121754.33,	121392.27,	121031.41,	120671.74,	120313.25,	119955.95,	119599.83,
119244.88,	118891.11,	118538.5,	118187.05,	117836.76,	117487.62,	117139.64,	116792.8,	116447.1,	116102.54,	115759.11,	115416.81,	115075.64,	114735.58,	114396.65,	114058.82,	113722.11,	113386.5,	113051.99,	112718.58,	112386.26,
112055.03,	111724.89,	111395.83,	111067.84,	110740.93,	110415.09,	110090.32,	109766.61,	109443.95,	109122.35,	108801.8,	108482.3,	108163.84,	107846.42,	107530.04,	107214.69,	106900.37,	106587.07,	106274.79,	105963.53,	105653.29,
105344.05,	105035.82,	104728.6,	104422.37,	104117.14,	103812.9,	103509.65,	103207.39,	102906.11,	102605.81,	102306.48,	102008.12,	101710.73,	101414.31,	101118.84,	100824.34,	100530.79,	100238.18,	99946.53,	99655.82,	99366.05,
99077.22,	98789.33,	98502.36,	98216.32,	97931.21,	97647.01,	97363.74,	97081.38,	96799.93,	96519.38,	96239.75,	95961.01,	95683.17,	95406.23,	95130.18,	94855.02,	94580.75,	94307.35,	94034.84,	93763.2,	93492.44,
93222.55,	92953.52,	92685.36,	92418.06,	92151.62,	91886.03,	91621.3,	91357.41,	91094.37,	90832.17,	90570.82,	90310.3,	90050.61,	89791.76,	89533.73,	89276.53,	89020.16,	88764.6,	88509.86,	88255.93,	88002.82,
87750.51,	87499.01,	87248.31,	86998.41,	86749.31,	86501,	86253.48,	86006.76,	85760.82,	85515.66,	85271.28,	85027.68,	84784.85,	84542.8,	84301.52,	84061,	83821.25,	83582.26,	83344.03,	83106.56,	82869.84,
82633.87,	82398.65,	82164.17,	81930.44,	81697.45,	81465.19,	81233.68,	81002.89,	80772.84,	80543.51,	80314.91,	80087.03,	79859.88,	79633.44,	79407.71,	79182.7,	78958.4,	78734.81,	78511.92,	78289.74,	78068.26,
77847.47,	77627.38,	77407.99,	77189.28,	76971.27,	76753.94,	76537.29,	76321.33,	76106.04,	75891.43,	75677.5,	75464.24,	75251.65,	75039.72,	74828.46,	74617.87,	74407.93,	74198.65,	73990.03,	73782.07,	73574.75,
73368.09,	73162.07,	72956.7,	72751.96,	72547.87,	72344.42,	72141.61,	71939.43,	71737.88,	71536.96,	71336.66,	71137,	70937.95,	70739.53,	70541.72,	70344.54,	70147.96,	69952,	69756.65,	69561.91,	69367.78,
69174.25,	68981.32,	68788.99,	68597.26,	68406.13,	68215.59,	68025.64,	67836.28,	67647.51,	67459.32,	67271.72,	67084.71,	66898.27,	66712.41,	66527.12,	66342.41,	66158.27,	65974.71,	65791.71,	65609.27,	65427.4,
65246.1,	65065.35,	64885.17,	64705.53,	64526.46,	64347.94,	64169.97,	63992.54,	63815.67,	63639.34,	63463.55,	63288.31,	63113.61,	62939.44,	62765.81,	62592.72,	62420.16,	62248.13,	62076.62,	61905.65,	61735.2,
61565.28,	61395.88,	61226.99,	61058.63,	60890.78,	60723.45,	60556.63,	60390.32,	60224.53,	60059.24,	59894.46,	59730.18,	59566.4,	59403.13,	59240.36,	59078.08,	58916.3,	58755.02,	58594.23,	58433.93,	58274.11,
58114.79,	57955.96,	57797.6,	57639.74,	57482.35,	57325.44,	57169.01,	57013.06,	56857.59,	56702.58,	56548.05,	56393.99,	56240.4,	56087.27,	55934.61,	55782.42,	55630.69,	55479.41,	55328.6,	55178.25,	55028.35,
54878.91,	54729.92,	54581.38,	54433.29,	54285.65,	54138.46,	53991.72,	53845.42,	53699.56,	53554.14,	53409.17,	53264.63,	53120.53,	52976.86,	52833.63,	52690.83,	52548.47,	52406.53,	52265.02,	52123.94,	51983.28,
51843.05,	51703.24,	51563.85,	51424.88,	51286.33,	51148.2,	51010.49,	50873.18,	50736.29,	50599.82,	50463.75,	50328.09,	50192.84,	50058,	49923.56,	49789.52,	49655.89,	49522.66,	49389.83,	49257.39,	49125.35,
48993.71,	48862.47,	48731.61,	48601.15,	48471.08,	48341.39,	48212.1,	48083.19,	47954.67,	47826.53,	47698.77,	47571.4,	47444.41,	47317.79,	47191.56,	47065.7,	46940.21,	46815.1,	46690.36,	46566,	46442,
46318.38,	46195.12,	46072.23,	45949.7,	45827.54,	45705.74,	45584.31,	45463.23,	45342.52,	45222.16,	45102.16,	44982.52,	44863.23,	44744.3,	44625.72,	44507.49,	44389.61,	44272.08,	44154.89,	44038.06,	43921.57,
43805.43,	43689.63,	43574.17,	43459.05,	43344.28,	43229.84,	43115.74,	43001.98,	42888.55,	42775.46,	42662.7,	42550.28,	42438.19,	42326.42,	42214.99,	42103.88,	41993.11,	41882.65,	41772.53,	41662.73,	41553.25,
41444.09,	41335.25,	41226.74,	41118.54,	41010.66,	40903.1,	40795.85,	40688.92,	40582.3,	40476,	40370,	40264.32,	40158.95,	40053.88,	39949.12,	39844.67,	39740.53,	39636.69,	39533.15,	39429.92,	39326.99,
39224.36,	39122.03,	39020,	38918.27,	38816.83,	38715.69,	38614.85,	38514.29,	38414.04,	38314.07,	38214.4,	38115.02,	38015.92,	37917.12,	37818.6,	37720.37,	37622.42,	37524.76,	37427.39,	37330.29,	37233.48,
37136.95,	37040.7,	36944.73,	36849.04,	36753.63,	36658.49,	36563.63,	36469.04,	36374.73,	36280.69,	36186.93,	36093.43,	36000.21,	35907.25,	35814.57,	35722.15,	35630,	35538.12,	35446.5,	35355.14,	35264.06,
35173.23,	35082.66,	34992.36,	34902.32,	34812.54,	34723.01,	34633.75,	34544.74,	34455.99,	34366.5,	34278.3,	34190.36,	34102.68,	34015.24,	33928.06,	33841.13,	33754.45,	33668.02,	33581.83,	33495.9,	33410.21,
33324.77,	33239.57,	33154.62,	33069.91,	32985.44,	32901.22,	32817.24,	32733.5,	32650,	32566.74,	32483.72,	32400.93,	32318.38,	32236.07,	32154,	32072.16,	31990.55,	31909.18,	31828.03,	31747.12,	31666.45,
31586,	31505.78,	31425.79,	31346.03,	31266.5,	31187.19,	31108.11,	31029.25,	30950.62,	30872.22,	30794.03,	30716.07,	30638.33,	30560.81,	30483.52,	30406.44,	30329.58,	30252.94,	30176.52,	30100.31,	30024.32,
29948.55,	29872.99,	29797.64,	29722.51,	29647.59,	29572.89,	29498.39,	29424.11,	29350.04,	29276.18,	29202.52,	29129.08,	29055.84,	28982.81,	28909.98,	28837.36,	28764.95,	28692.74,	28620.73,	28548.93,	28477.33,
28405.93,	28334.74,	28263.74,	28192.94,	28122.35,	28051.95,	27981.75,	27911.75,	27841.94,	27772.34,	27702.92,	27633.7,	27564.68,	27495.85,	27427.22,	27358.77,	27290.52,	27222.46,	27154.59,	27086.91,	27019.43,
26952.13,	26885.02,	26818.09,	26751.36,	26684.81,	26618.45,	26552.27,	26486.28,	26420.47,	26354.85,	26289.41,	26224.15,	26159.08,	26094.18,	26029.47,	25964.94,	25900.59,	25836.42,	25772.42,	25708.61,	25644.97,
25581.51,	25518.23,	25455.13,	25392.19,	25329.44,	25266.86,	25204.45,	25142.22,	25080.16,	25018.27,	24956.55,	24895.01,	24833.63,	24772.43,	24711.39,	24650.53,	24589.83,	24529.31,	24468.95,	24408.75,	24348.73,
24288.87,	24229.17,	24169.64,	24110.28,	24051.08,	23992.04,	23933.17,	23874.46,	23815.91,	23757.52,	23699.3,	23641.23,	23583.33,	23525.58,	23468,	23410.57,	23353.3,	23296.19,	23239.23,	23182.44,	23125.8,
23069.31,	23012.98,	22956.81,	22900.79,	22844.92,	22789.21,	22733.65,	22678.24,	22622.99,	22567.88,	22512.93,	22458.13,	22403.48,	22348.98,	22294.63,	22240.42,	22186.37,	22132.46,	22078.7,	22025.09,	21971.63,
21918.31,	21865.13,	21812.11,	21759.22,	21706.48,	21653.89,	21601.44,	21549.13,	21496.97,	21444.94,	21393.06,	21341.32,	21289.73,	21238.27,	21186.95,	21135.77,	21084.73,	21033.83,	20983.07,	20932.45,	20881.97,
20831.62,	20781.41,	20731.33,	20681.39,	20631.59,	20581.92,	20532.39,	20482.99,	20433.72,	20384.59,	20335.59,	20286.73,	20238,	20189.39,	20140.93,	20092.59,	20044.38,	19996.3,	19948.36,	19900.54,	19852.85,
19805.29,	19757.86,	19710.56,	19663.38,	19616.33,	19569.41,	19522.62,	19475.95,	19429.41,	19382.99,	19336.7,	19290.53,	19244.49,	19198.57,	19152.78,	19107.1,	19061.56,	19016.13,	18970.82,	18925.64,	18880.58,
18835.64,	18790.82,	18746.12,	18701.54,	18657.08,	18612.74,	18568.52,	18524.41,	18480.43,	18436.56,	18392.81,	18349.18,	18305.66,	18262.26,	18218.98,	18175.81,	18132.76,	18089.82,	18047,	18004.29,	17961.7,
17919.22,	17876.85,	17834.6,	17792.46,	17750.43,	17708.51,	17666.71,	17625.01,	17583.43,	17541.96,	17500.6,	17459.35,	17418.2,	17377.17,	17336.25,	17295.43,	17254.73,	17214.13,	17173.64,	17133.26,	17092.98,
17052.82,	17012.75,	16972.8,	16932.95,	16893.2,	16853.57,	16814.03,	16774.6,	16735.28,	16696.06,	16656.94,	16617.93,	16579.02,	16540.21,	16501.51,	16462.9,	16424.4,	16386.01,	16347.71,	16309.51,	16271.42,
16233.42,	16195.53,	16157.73,	16120.04,	16082.44,	16044.94,	16007.55,	15970.25,	15933.04,	15895.94,	15858.94,	15822.03,	15785.21,	15748.5,	15711.88,	15675.36,	15638.93,	15602.6,	15566.37,	15530.23,	15494.18,
15458.23,	15422.37,	15386.61,	15350.94,	15315.37,	15279.88,	15244.49,	15209.2,	15173.99,	15138.88,	15103.86,	15068.93,	15034.09,	14999.34,	14964.69,	14930.12,	14895.65,	14861.26,	14826.97,	14792.76,	14758.64,
14724.61,	14690.67,	14656.82,	14623.06,	14589.38,	14555.8,	14522.3,	14488.88,	14455.56,	14422.32,	14389.17,	14356.1,	14323.12,	14290.22,	14257.41,	14224.69,	14192.05,	14159.49,	14127.02,	14094.64,	14062.33,
14030.12,	13997.98,	13965.93,	13933.96,	13902.07,	13870.27,	13838.55,	13806.91,	13775.35,	13743.87,	13712.48,	13681.17,	13649.93,	13618.78,	13587.71,	13556.72,	13525.81,	13494.97,	13464.22,	13433.55,	13402.95,
13372.44,	13342,	13311.64,	13281.36,	13251.16,	13221.04,	13190.99,	13161.02,	13131.13,	13101.31,	13071.57,	13041.91,	13012.32,	12982.81,	12953.37,	12924.01,	12894.73,	12865.52,	12836.38,	12807.33,	12778.34,
12749.43,	12720.59,	12691.83,	12663.14,	12634.52,	12605.98,	12577.51,	12549.11,	12520.79,	12492.53,	12464.35,	12436.24,	12408.21,	12380.24,	12352.35,	12324.52,	12296.77,	12269.09,	12241.48,	12213.94,	12186.47,
12159.07,	12131.74,	12104.48,	12077.29,	12050.17,	12023.11,	11996.13,	11969.21,	11942.36,	11915.58,	11888.87,	11862.23,	11835.65,	11809.14,	11782.7,	11756.33,	11730.02,	11703.78,	11677.6,	11651.5,	11625.45,
